/absorption data for Si
/from Martin A. Green / Prog Photovolt Res Appl.30, 164–179 (2022)
/lambda[nm]	alfa[m^-1]
250  1.841E+08
260  1.974E+08
270  2.184E+08
280  2.375E+08
290  2.299E+08
300  1.772E+08
310  1.469E+08
320  1.301E+08
330  1.185E+08
340  1.104E+08
350  1.056E+08
360  1.035E+08
370  7.122E+07
380  3.036E+07
390  1.447E+07
400  9.554E+06
410  6.776E+06
420  5.124E+06
430  3.906E+06
440  3.085E+06
450  2.614E+06
460  2.179E+06
470  1.829E+06
480  1.551E+06
490  1.328E+06
500  1.144E+06
510  1.000E+06
520  8.871E+05
530  7.941E+05
540  7.137E+05
550  6.446E+05
560  5.869E+05
570  5.350E+05
580  4.903E+05
590  4.537E+05
600  4.171E+05
610  3.858E+05
620  3.572E+05
630  3.307E+05
640  3.064E+05
650  2.842E+05
660  2.637E+05
670  2.446E+05
680  2.267E+05
690  2.099E+05
700  1.943E+05
710  1.796E+05
720  1.659E+05
730  1.531E+05
740  1.412E+05
750  1.300E+05
760  1.195E+05
770  1.098E+05
780  1.007E+05
790  9.223E+04
800  8.439E+04
810  7.703E+04
820  7.018E+04
830  6.382E+04
840  5.789E+04
850  5.236E+04
860  4.723E+04
870  4.248E+04
880  3.809E+04
890  3.400E+04
900  3.026E+04
910  2.679E+04
920  2.360E+04
930  2.054E+04
940  1.801E+04
950  1.557E+04
960  1.332E+04
970  1.130E+04
980  9.512E+03
990  7.894E+03
1000  6.446E+03
1010  5.176E+03
1020  4.081E+03
1030  3.100E+03
1040  2.306E+03
1050  1.670E+03
1060  1.183E+03
1070  8.617E+02
1080  6.578E+02
1090  4.976E+02
1100  3.768E+02
1110  2.836E+02
1120  2.108E+02
1130  1.518E+02
1140  1.051E+02
1150  6.892E+01
1160  4.184E+01
1170  2.182E+01
1180  6.726E+00
1190  2.899E+00
1200  1.751E+00
1210  1.029E+00
1220  6.286E-01
1230  3.578E-01
1240  1.855E-01
1250  7.665E-02
1260  2.896E-02
1270  1.588E-02
1280  9.478E-03
1290  5.648E-03
1300  3.514E-03
1310  2.081E-03
1320  1.191E-03
1330  5.932E-04
1340  2.593E-04
1350  1.245E-04
1360  6.569E-05
1370  3.968E-05
1380  2.496E-05
1390  1.476E-05
1400  9.217E-06
1410  5.244E-06
1420  3.312E-06
1430  1.602E-06
1440  9.859E-07
1450  6.662E-07
