/absorption data for Si
/from Martin A. Green / Prog Photovolt Res Appl.30, 164–179 (2022)
/lambda[nm]	alfa[m^-1]
250  1.840E+08
260  1.974E+08
270  2.182E+08
280  2.373E+08
290  2.300E+08
300  1.773E+08
310  1.470E+08
320  1.302E+08
330  1.185E+08
340  1.104E+08
350  1.056E+08
360  1.034E+08
370  7.128E+07
380  3.042E+07
390  1.454E+07
400  9.616E+06
410  6.818E+06
420  5.154E+06
430  3.928E+06
440  3.102E+06
450  2.629E+06
460  2.191E+06
470  1.839E+06
480  1.560E+06
490  1.336E+06
500  1.152E+06
510  1.007E+06
520  8.927E+05
530  7.993E+05
540  7.184E+05
550  6.488E+05
560  5.909E+05
570  5.386E+05
580  4.937E+05
590  4.568E+05
600  4.199E+05
610  3.885E+05
620  3.597E+05
630  3.330E+05
640  3.085E+05
650  2.862E+05
660  2.655E+05
670  2.464E+05
680  2.283E+05
690  2.114E+05
700  1.957E+05
710  1.809E+05
720  1.671E+05
730  1.543E+05
740  1.422E+05
750  1.309E+05
760  1.204E+05
770  1.107E+05
780  1.014E+05
790  9.293E+04
800  8.506E+04
810  7.766E+04
820  7.076E+04
830  6.438E+04
840  5.840E+04
850  5.284E+04
860  4.767E+04
870  4.289E+04
880  3.848E+04
890  3.435E+04
900  3.058E+04
910  2.709E+04
920  2.386E+04
930  2.078E+04
940  1.824E+04
950  1.578E+04
960  1.350E+04
970  1.146E+04
980  9.660E+03
990  8.026E+03
1000  6.563E+03
1010  5.278E+03
1020  4.167E+03
1030  3.170E+03
1040  2.362E+03
1050  1.716E+03
1060  1.218E+03
1070  8.888E+02
1080  6.792E+02
1090  5.143E+02
1100  3.901E+02
1110  2.939E+02
1120  2.187E+02
1130  1.577E+02
1140  1.094E+02
1150  7.186E+01
1160  4.379E+01
1170  2.299E+01
1180  7.169E+00
1190  3.105E+00
1200  1.879E+00
1210  1.109E+00
1220  6.794E-01
1230  3.879E-01
1240  2.014E-01
1250  8.352E-02
1260  3.162E-02
1270  1.739E-02
1280  1.041E-02
1290  6.240E-03
1300  3.902E-03
1310  2.322E-03
1320  1.337E-03
1330  6.699E-04
1340  2.952E-04
1350  1.423E-04
1360  7.515E-05
1370  4.544E-05
1380  2.861E-05
1390  1.694E-05
1400  1.060E-05
1410  6.040E-06
1420  3.823E-06
1430  1.853E-06
1440  1.143E-06
1450  7.736E-07
