/absorption data for Si
/from Martin A. Green / Prog Photovolt Res Appl.30, 164–179 (2022)
/lambda[nm]	alfa[m^-1]
250  1.840E+08
260  1.974E+08
270  2.182E+08
280  2.372E+08
290  2.300E+08
300  1.773E+08
310  1.470E+08
320  1.302E+08
330  1.185E+08
340  1.104E+08
350  1.056E+08
360  1.034E+08
370  7.131E+07
380  3.044E+07
390  1.458E+07
400  9.648E+06
410  6.839E+06
420  5.168E+06
430  3.939E+06
440  3.111E+06
450  2.636E+06
460  2.197E+06
470  1.845E+06
480  1.564E+06
490  1.340E+06
500  1.155E+06
510  1.010E+06
520  8.956E+05
530  8.019E+05
540  7.207E+05
550  6.509E+05
560  5.929E+05
570  5.405E+05
580  4.953E+05
590  4.583E+05
600  4.213E+05
610  3.898E+05
620  3.609E+05
630  3.342E+05
640  3.096E+05
650  2.872E+05
660  2.664E+05
670  2.472E+05
680  2.291E+05
690  2.121E+05
700  1.965E+05
710  1.816E+05
720  1.678E+05
730  1.548E+05
740  1.427E+05
750  1.314E+05
760  1.208E+05
770  1.111E+05
780  1.018E+05
790  9.328E+04
800  8.539E+04
810  7.797E+04
820  7.106E+04
830  6.466E+04
840  5.866E+04
850  5.308E+04
860  4.789E+04
870  4.310E+04
880  3.868E+04
890  3.453E+04
900  3.075E+04
910  2.724E+04
920  2.400E+04
930  2.090E+04
940  1.835E+04
950  1.588E+04
960  1.359E+04
970  1.155E+04
980  9.735E+03
990  8.093E+03
1000  6.622E+03
1010  5.329E+03
1020  4.211E+03
1030  3.205E+03
1040  2.390E+03
1050  1.739E+03
1060  1.236E+03
1070  9.025E+02
1080  6.900E+02
1090  5.227E+02
1100  3.970E+02
1110  2.992E+02
1120  2.227E+02
1130  1.607E+02
1140  1.116E+02
1150  7.337E+01
1160  4.480E+01
1170  2.359E+01
1180  7.400E+00
1190  3.213E+00
1200  1.947E+00
1210  1.152E+00
1220  7.061E-01
1230  4.038E-01
1240  2.097E-01
1250  8.716E-02
1260  3.303E-02
1270  1.819E-02
1280  1.091E-02
1290  6.557E-03
1300  4.110E-03
1310  2.452E-03
1320  1.416E-03
1330  7.117E-04
1340  3.148E-04
1350  1.520E-04
1360  8.035E-05
1370  4.861E-05
1380  3.063E-05
1390  1.814E-05
1400  1.136E-05
1410  6.481E-06
1420  4.105E-06
1430  1.992E-06
1440  1.230E-06
1450  8.334E-07
