/absorption data for Si
/from Martin A. Green / Prog Photovolt Res Appl.30, 164–179 (2022)
/lambda[nm]	alfa[m^-1]
250  1.840E+08
260  1.973E+08
270  2.180E+08
280  2.371E+08
290  2.300E+08
300  1.774E+08
310  1.471E+08
320  1.302E+08
330  1.186E+08
340  1.104E+08
350  1.056E+08
360  1.034E+08
370  7.137E+07
380  3.050E+07
390  1.466E+07
400  9.710E+06
410  6.881E+06
420  5.198E+06
430  3.962E+06
440  3.128E+06
450  2.651E+06
460  2.210E+06
470  1.855E+06
480  1.574E+06
490  1.348E+06
500  1.162E+06
510  1.016E+06
520  9.012E+05
530  8.071E+05
540  7.254E+05
550  6.552E+05
560  5.969E+05
570  5.441E+05
580  4.986E+05
590  4.614E+05
600  4.241E+05
610  3.925E+05
620  3.634E+05
630  3.365E+05
640  3.117E+05
650  2.892E+05
660  2.683E+05
670  2.490E+05
680  2.307E+05
690  2.136E+05
700  1.979E+05
710  1.829E+05
720  1.690E+05
730  1.560E+05
740  1.438E+05
750  1.324E+05
760  1.217E+05
770  1.119E+05
780  1.025E+05
790  9.397E+04
800  8.607E+04
810  7.860E+04
820  7.165E+04
830  6.522E+04
840  5.918E+04
850  5.356E+04
860  4.833E+04
870  4.352E+04
880  3.906E+04
890  3.489E+04
900  3.107E+04
910  2.754E+04
920  2.427E+04
930  2.115E+04
940  1.857E+04
950  1.608E+04
960  1.378E+04
970  1.171E+04
980  9.885E+03
990  8.227E+03
1000  6.741E+03
1010  5.432E+03
1020  4.299E+03
1030  3.277E+03
1040  2.447E+03
1050  1.786E+03
1060  1.272E+03
1070  9.306E+02
1080  7.122E+02
1090  5.400E+02
1100  4.109E+02
1110  3.100E+02
1120  2.310E+02
1130  1.668E+02
1140  1.160E+02
1150  7.647E+01
1160  4.688E+01
1170  2.483E+01
1180  7.882E+00
1190  3.439E+00
1200  2.088E+00
1210  1.242E+00
1220  7.626E-01
1230  4.375E-01
1240  2.274E-01
1250  9.489E-02
1260  3.603E-02
1270  1.990E-02
1280  1.197E-02
1290  7.237E-03
1300  4.559E-03
1310  2.733E-03
1320  1.588E-03
1330  8.028E-04
1340  3.579E-04
1350  1.735E-04
1360  9.180E-05
1370  5.559E-05
1380  3.506E-05
1390  2.079E-05
1400  1.304E-05
1410  7.455E-06
1420  4.732E-06
1430  2.301E-06
1440  1.423E-06
1450  9.664E-07
