/absorption data for Si
/from Martin A. Green / Prog Photovolt Res Appl.30, 164–179 (2022)
/lambda[nm]	alfa[m^-1]
250  1.840E+08
260  1.972E+08
270  2.179E+08
280  2.369E+08
290  2.301E+08
300  1.775E+08
310  1.472E+08
320  1.303E+08
330  1.186E+08
340  1.104E+08
350  1.056E+08
360  1.034E+08
370  7.143E+07
380  3.055E+07
390  1.473E+07
400  9.773E+06
410  6.922E+06
420  5.227E+06
430  3.984E+06
440  3.145E+06
450  2.665E+06
460  2.222E+06
470  1.866E+06
480  1.583E+06
490  1.356E+06
500  1.169E+06
510  1.022E+06
520  9.068E+05
530  8.123E+05
540  7.301E+05
550  6.594E+05
560  6.008E+05
570  5.477E+05
580  5.019E+05
590  4.645E+05
600  4.270E+05
610  3.952E+05
620  3.659E+05
630  3.388E+05
640  3.138E+05
650  2.911E+05
660  2.701E+05
670  2.507E+05
680  2.324E+05
690  2.151E+05
700  1.993E+05
710  1.842E+05
720  1.702E+05
730  1.571E+05
740  1.448E+05
750  1.333E+05
760  1.226E+05
770  1.127E+05
780  1.033E+05
790  9.467E+04
800  8.674E+04
810  7.923E+04
820  7.224E+04
830  6.578E+04
840  5.971E+04
850  5.404E+04
860  4.878E+04
870  4.394E+04
880  3.945E+04
890  3.524E+04
900  3.140E+04
910  2.785E+04
920  2.454E+04
930  2.139E+04
940  1.880E+04
950  1.629E+04
960  1.396E+04
970  1.188E+04
980  1.004E+04
990  8.363E+03
1000  6.862E+03
1010  5.537E+03
1020  4.389E+03
1030  3.350E+03
1040  2.506E+03
1050  1.834E+03
1060  1.308E+03
1070  9.593E+02
1080  7.349E+02
1090  5.578E+02
1100  4.252E+02
1110  3.211E+02
1120  2.395E+02
1130  1.731E+02
1140  1.207E+02
1150  7.968E+01
1160  4.904E+01
1170  2.613E+01
1180  8.393E+00
1190  3.680E+00
1200  2.238E+00
1210  1.338E+00
1220  8.231E-01
1230  4.737E-01
1240  2.465E-01
1250  1.032E-01
1260  3.927E-02
1270  2.176E-02
1280  1.312E-02
1290  7.982E-03
1300  5.053E-03
1310  3.044E-03
1320  1.780E-03
1330  9.048E-04
1340  4.066E-04
1350  1.979E-04
1360  1.048E-04
1370  6.351E-05
1380  4.010E-05
1390  2.380E-05
1400  1.496E-05
1410  8.568E-06
1420  5.449E-06
1430  2.656E-06
1440  1.646E-06
1450  1.120E-06
