/absorption data for Si
/from Martin A. Green / Prog Photovolt Res Appl.30, 164–179 (2022)
/lambda[nm]	alfa[m^-1]
250  1.835E+08
260  1.964E+08
270  2.160E+08
280  2.348E+08
290  2.306E+08
300  1.787E+08
310  1.485E+08
320  1.308E+08
330  1.188E+08
340  1.105E+08
350  1.056E+08
360  1.030E+08
370  7.227E+07
380  3.135E+07
390  1.583E+07
400  1.071E+07
410  7.545E+06
420  5.666E+06
430  4.319E+06
440  3.399E+06
450  2.881E+06
460  2.409E+06
470  2.022E+06
480  1.720E+06
490  1.474E+06
500  1.274E+06
510  1.114E+06
520  9.912E+05
530  8.904E+05
540  8.002E+05
550  7.227E+05
560  6.604E+05
570  6.020E+05
580  5.517E+05
590  5.105E+05
600  4.693E+05
610  4.355E+05
620  4.033E+05
630  3.734E+05
640  3.459E+05
650  3.209E+05
660  2.977E+05
670  2.771E+05
680  2.568E+05
690  2.378E+05
700  2.209E+05
710  2.042E+05
720  1.886E+05
730  1.741E+05
740  1.605E+05
750  1.478E+05
760  1.359E+05
770  1.249E+05
780  1.145E+05
790  1.052E+05
800  9.694E+04
810  8.879E+04
820  8.118E+04
830  7.434E+04
840  6.766E+04
850  6.141E+04
860  5.558E+04
870  5.035E+04
880  4.546E+04
890  4.072E+04
900  3.649E+04
910  3.254E+04
920  2.875E+04
930  2.520E+04
940  2.233E+04
950  1.951E+04
960  1.692E+04
970  1.456E+04
980  1.247E+04
990  1.056E+04
1000  8.837E+03
1010  7.271E+03
1020  5.893E+03
1030  4.586E+03
1040  3.508E+03
1050  2.676E+03
1060  1.963E+03
1070  1.480E+03
1080  1.150E+03
1090  8.849E+02
1100  6.936E+02
1110  5.312E+02
1120  4.017E+02
1130  2.944E+02
1140  2.110E+02
1150  1.432E+02
1160  9.320E+01
1170  5.414E+01
1180  2.054E+01
1190  9.656E+00
1200  6.038E+00
1210  3.868E+00
1220  2.448E+00
1230  1.473E+00
1240  7.770E-01
1250  3.440E-01
1260  1.346E-01
1270  7.773E-02
1280  4.887E-02
1290  3.231E-02
1300  2.193E-02
1310  1.416E-02
1320  9.024E-03
1330  4.987E-03
1340  2.505E-03
1350  1.289E-03
1360  6.919E-04
1370  4.252E-04
1380  2.722E-04
1390  1.638E-04
1400  1.059E-04
1410  6.236E-05
1420  4.078E-05
1430  2.049E-05
1440  1.306E-05
1450  9.132E-06
