/absorption data for Si
/from Martin A. Green / Prog Photovolt Res Appl.30, 164–179 (2022)
/lambda[nm]	alfa[m^-1]
250  1.843E+08
260  1.978E+08
270  2.193E+08
280  2.385E+08
290  2.297E+08
300  1.766E+08
310  1.463E+08
320  1.299E+08
330  1.184E+08
340  1.104E+08
350  1.056E+08
360  1.037E+08
370  7.083E+07
380  2.999E+07
390  1.398E+07
400  9.146E+06
410  6.505E+06
420  4.932E+06
430  3.759E+06
440  2.973E+06
450  2.519E+06
460  2.097E+06
470  1.760E+06
480  1.490E+06
490  1.277E+06
500  1.099E+06
510  9.603E+05
520  8.504E+05
530  7.602E+05
540  6.833E+05
550  6.171E+05
560  5.612E+05
570  5.115E+05
580  4.688E+05
590  4.338E+05
600  3.988E+05
610  3.683E+05
620  3.410E+05
630  3.158E+05
640  2.925E+05
650  2.714E+05
660  2.518E+05
670  2.333E+05
680  2.162E+05
690  2.001E+05
700  1.850E+05
710  1.710E+05
720  1.580E+05
730  1.458E+05
740  1.344E+05
750  1.238E+05
760  1.138E+05
770  1.046E+05
780  9.588E+04
790  8.772E+04
800  8.004E+04
810  7.297E+04
820  6.639E+04
830  6.022E+04
840  5.455E+04
850  4.927E+04
860  4.438E+04
870  3.982E+04
880  3.561E+04
890  3.175E+04
900  2.818E+04
910  2.488E+04
920  2.188E+04
930  1.900E+04
940  1.660E+04
950  1.429E+04
960  1.216E+04
970  1.026E+04
980  8.581E+03
990  7.065E+03
1000  5.716E+03
1010  4.548E+03
1020  3.547E+03
1030  2.670E+03
1040  1.965E+03
1050  1.396E+03
1060  9.757E+02
1070  7.012E+02
1080  5.318E+02
1090  3.996E+02
1100  2.986E+02
1110  2.233E+02
1120  1.649E+02
1130  1.180E+02
1140  8.060E+01
1150  5.215E+01
1160  3.083E+01
1170  1.544E+01
1180  4.396E+00
1190  1.833E+00
1200  1.093E+00
1210  6.210E-01
1220  3.746E-01
1230  2.087E-01
1240  1.075E-01
1250  4.327E-02
1260  1.613E-02
1270  8.672E-03
1280  5.074E-03
1290  2.906E-03
1300  1.750E-03
1310  1.002E-03
1320  5.507E-04
1330  2.636E-04
1340  1.093E-04
1350  5.110E-05
1360  2.679E-05
1370  1.608E-05
1380  1.005E-05
1390  5.904E-06
1400  3.637E-06
1410  2.042E-06
1420  1.273E-06
1430  6.068E-07
1440  3.685E-07
1450  2.457E-07
