/absorption data for Si
/from Martin A. Green / Prog Photovolt Res Appl.30, 164–179 (2022)
/lambda[nm]	alfa[m^-1]
250  1.843E+08
260  1.978E+08
270  2.191E+08
280  2.383E+08
290  2.297E+08
300  1.767E+08
310  1.464E+08
320  1.299E+08
330  1.184E+08
340  1.104E+08
350  1.056E+08
360  1.036E+08
370  7.089E+07
380  3.005E+07
390  1.406E+07
400  9.209E+06
410  6.546E+06
420  4.961E+06
430  3.782E+06
440  2.990E+06
450  2.534E+06
460  2.109E+06
470  1.771E+06
480  1.500E+06
490  1.285E+06
500  1.106E+06
510  9.665E+05
520  8.560E+05
530  7.654E+05
540  6.880E+05
550  6.213E+05
560  5.651E+05
570  5.151E+05
580  4.721E+05
590  4.369E+05
600  4.016E+05
610  3.710E+05
620  3.435E+05
630  3.181E+05
640  2.946E+05
650  2.734E+05
660  2.536E+05
670  2.350E+05
680  2.178E+05
690  2.016E+05
700  1.865E+05
710  1.724E+05
720  1.592E+05
730  1.470E+05
740  1.355E+05
750  1.247E+05
760  1.147E+05
770  1.054E+05
780  9.662E+04
790  8.841E+04
800  8.071E+04
810  7.359E+04
820  6.697E+04
830  6.077E+04
840  5.506E+04
850  4.974E+04
860  4.482E+04
870  4.022E+04
880  3.599E+04
890  3.209E+04
900  2.849E+04
910  2.517E+04
920  2.214E+04
930  1.923E+04
940  1.681E+04
950  1.449E+04
960  1.233E+04
970  1.042E+04
980  8.721E+03
990  7.189E+03
1000  5.824E+03
1010  4.641E+03
1020  3.626E+03
1030  2.733E+03
1040  2.015E+03
1050  1.435E+03
1060  1.006E+03
1070  7.243E+02
1080  5.499E+02
1090  4.136E+02
1100  3.097E+02
1110  2.318E+02
1120  1.713E+02
1130  1.227E+02
1140  8.402E+01
1150  5.448E+01
1160  3.235E+01
1170  1.630E+01
1180  4.699E+00
1190  1.970E+00
1200  1.177E+00
1210  6.722E-01
1220  4.062E-01
1230  2.271E-01
1240  1.171E-01
1250  4.732E-02
1260  1.768E-02
1270  9.534E-03
1280  5.596E-03
1290  3.225E-03
1300  1.952E-03
1310  1.124E-03
1320  6.215E-04
1330  2.994E-04
1340  1.252E-04
1350  5.876E-05
1360  3.084E-05
1370  1.852E-05
1380  1.159E-05
1390  6.816E-06
1400  4.208E-06
1410  2.367E-06
1420  1.479E-06
1430  7.066E-07
1440  4.300E-07
1450  2.873E-07
