/absorption data for Si
/from Martin A. Green / Prog Photovolt Res Appl.30, 164–179 (2022)
/lambda[nm]	alfa[m^-1]
250  1.842E+08
260  1.977E+08
270  2.191E+08
280  2.382E+08
290  2.297E+08
300  1.767E+08
310  1.464E+08
320  1.299E+08
330  1.184E+08
340  1.104E+08
350  1.056E+08
360  1.036E+08
370  7.092E+07
380  3.008E+07
390  1.409E+07
400  9.240E+06
410  6.567E+06
420  4.976E+06
430  3.793E+06
440  2.999E+06
450  2.541E+06
460  2.116E+06
470  1.776E+06
480  1.504E+06
490  1.289E+06
500  1.109E+06
510  9.696E+05
520  8.589E+05
530  7.680E+05
540  6.903E+05
550  6.234E+05
560  5.671E+05
570  5.170E+05
580  4.738E+05
590  4.384E+05
600  4.030E+05
610  3.724E+05
620  3.448E+05
630  3.192E+05
640  2.957E+05
650  2.743E+05
660  2.545E+05
670  2.359E+05
680  2.186E+05
690  2.024E+05
700  1.872E+05
710  1.730E+05
720  1.598E+05
730  1.475E+05
740  1.360E+05
750  1.252E+05
760  1.151E+05
770  1.058E+05
780  9.699E+04
790  8.876E+04
800  8.104E+04
810  7.390E+04
820  6.726E+04
830  6.105E+04
840  5.531E+04
850  4.998E+04
860  4.503E+04
870  4.043E+04
880  3.618E+04
890  3.226E+04
900  2.865E+04
910  2.532E+04
920  2.227E+04
930  1.935E+04
940  1.692E+04
950  1.458E+04
960  1.242E+04
970  1.050E+04
980  8.791E+03
990  7.251E+03
1000  5.879E+03
1010  4.688E+03
1020  3.666E+03
1030  2.765E+03
1040  2.040E+03
1050  1.456E+03
1060  1.021E+03
1070  7.360E+02
1080  5.590E+02
1090  4.208E+02
1100  3.154E+02
1110  2.362E+02
1120  1.746E+02
1130  1.252E+02
1140  8.578E+01
1150  5.568E+01
1160  3.312E+01
1170  1.675E+01
1180  4.857E+00
1190  2.041E+00
1200  1.221E+00
1210  6.991E-01
1220  4.230E-01
1230  2.369E-01
1240  1.222E-01
1250  4.948E-02
1260  1.851E-02
1270  9.995E-03
1280  5.876E-03
1290  3.397E-03
1300  2.061E-03
1310  1.190E-03
1320  6.600E-04
1330  3.189E-04
1340  1.339E-04
1350  6.298E-05
1360  3.307E-05
1370  1.987E-05
1380  1.244E-05
1390  7.321E-06
1400  4.524E-06
1410  2.548E-06
1420  1.593E-06
1430  7.621E-07
1440  4.643E-07
1450  3.106E-07
