/absorption data for Si
/from Martin A. Green / Prog Photovolt Res Appl.30, 164–179 (2022)
/lambda[nm]	alfa[m^-1]
250  1.842E+08
260  1.976E+08
270  2.188E+08
280  2.379E+08
290  2.298E+08
300  1.769E+08
310  1.466E+08
320  1.300E+08
330  1.185E+08
340  1.104E+08
350  1.056E+08
360  1.036E+08
370  7.104E+07
380  3.019E+07
390  1.424E+07
400  9.366E+06
410  6.651E+06
420  5.035E+06
430  3.838E+06
440  3.033E+06
450  2.571E+06
460  2.141E+06
470  1.797E+06
480  1.523E+06
490  1.305E+06
500  1.123E+06
510  9.820E+05
520  8.702E+05
530  7.785E+05
540  6.997E+05
550  6.319E+05
560  5.751E+05
570  5.242E+05
580  4.804E+05
590  4.445E+05
600  4.086E+05
610  3.777E+05
620  3.497E+05
630  3.238E+05
640  3.000E+05
650  2.783E+05
660  2.582E+05
670  2.394E+05
680  2.218E+05
690  2.054E+05
700  1.900E+05
710  1.757E+05
720  1.623E+05
730  1.498E+05
740  1.380E+05
750  1.271E+05
760  1.169E+05
770  1.074E+05
780  9.846E+04
790  9.014E+04
800  8.238E+04
810  7.515E+04
820  6.843E+04
830  6.215E+04
840  5.634E+04
850  5.093E+04
860  4.591E+04
870  4.124E+04
880  3.694E+04
890  3.295E+04
900  2.929E+04
910  2.591E+04
920  2.280E+04
930  1.982E+04
940  1.735E+04
950  1.498E+04
960  1.278E+04
970  1.081E+04
980  9.076E+03
990  7.504E+03
1000  6.102E+03
1010  4.880E+03
1020  3.828E+03
1030  2.896E+03
1040  2.144E+03
1050  1.539E+03
1060  1.084E+03
1070  7.844E+02
1080  5.970E+02
1090  4.503E+02
1100  3.389E+02
1110  2.543E+02
1120  1.884E+02
1130  1.353E+02
1140  9.312E+01
1150  6.069E+01
1160  3.640E+01
1170  1.864E+01
1180  5.540E+00
1190  2.352E+00
1200  1.412E+00
1210  8.172E-01
1220  4.964E-01
1230  2.798E-01
1240  1.447E-01
1250  5.905E-02
1260  2.218E-02
1270  1.205E-02
1280  7.128E-03
1290  4.171E-03
1300  2.557E-03
1310  1.491E-03
1320  8.378E-04
1330  4.098E-04
1340  1.749E-04
1350  8.294E-05
1360  4.364E-05
1370  2.628E-05
1380  1.648E-05
1390  9.720E-06
1400  6.031E-06
1410  3.411E-06
1420  2.141E-06
1430  1.029E-06
1440  6.294E-07
1450  4.227E-07
