/absorption data for Si
/from Martin A. Green / Prog Photovolt Res Appl.30, 164–179 (2022)
/lambda[nm]	alfa[m^-1]
250  1.841E+08
260  1.976E+08
270  2.186E+08
280  2.378E+08
290  2.299E+08
300  1.770E+08
310  1.467E+08
320  1.301E+08
330  1.185E+08
340  1.104E+08
350  1.056E+08
360  1.035E+08
370  7.111E+07
380  3.025E+07
390  1.432E+07
400  9.428E+06
410  6.693E+06
420  5.065E+06
430  3.861E+06
440  3.050E+06
450  2.585E+06
460  2.153E+06
470  1.808E+06
480  1.532E+06
490  1.312E+06
500  1.130E+06
510  9.881E+05
520  8.758E+05
530  7.837E+05
540  7.043E+05
550  6.361E+05
560  5.790E+05
570  5.278E+05
580  4.837E+05
590  4.476E+05
600  4.115E+05
610  3.804E+05
620  3.522E+05
630  3.261E+05
640  3.021E+05
650  2.803E+05
660  2.600E+05
670  2.411E+05
680  2.234E+05
690  2.069E+05
700  1.915E+05
710  1.770E+05
720  1.635E+05
730  1.509E+05
740  1.391E+05
750  1.281E+05
760  1.178E+05
770  1.082E+05
780  9.920E+04
790  9.084E+04
800  8.305E+04
810  7.577E+04
820  6.901E+04
830  6.271E+04
840  5.685E+04
850  5.140E+04
860  4.635E+04
870  4.166E+04
880  3.733E+04
890  3.330E+04
900  2.961E+04
910  2.620E+04
920  2.306E+04
930  2.006E+04
940  1.757E+04
950  1.517E+04
960  1.295E+04
970  1.097E+04
980  9.220E+03
990  7.633E+03
1000  6.215E+03
1010  4.977E+03
1020  3.911E+03
1030  2.963E+03
1040  2.197E+03
1050  1.582E+03
1060  1.116E+03
1070  8.096E+02
1080  6.168E+02
1090  4.656E+02
1100  3.511E+02
1110  2.637E+02
1120  1.956E+02
1130  1.407E+02
1140  9.698E+01
1150  6.334E+01
1160  3.814E+01
1170  1.965E+01
1180  5.913E+00
1190  2.523E+00
1200  1.518E+00
1210  8.828E-01
1220  5.373E-01
1230  3.039E-01
1240  1.573E-01
1250  6.446E-02
1260  2.426E-02
1270  1.322E-02
1280  7.843E-03
1290  4.618E-03
1300  2.845E-03
1310  1.668E-03
1320  9.428E-04
1330  4.639E-04
1340  1.996E-04
1350  9.505E-05
1360  5.006E-05
1370  3.018E-05
1380  1.895E-05
1390  1.118E-05
1400  6.954E-06
1410  3.940E-06
1420  2.479E-06
1430  1.194E-06
1440  7.317E-07
1450  4.924E-07
